# 0.2
#pO2[atm]       3-delta Temp[K]
2.78460E-07	3.00201	1073
7.85748E-14	2.99498	1073
1.50101E-14	2.99565	1073
5.62838E-15	2.99495	1073
3.04918E-15	2.99152	1073
1.86717E-15	2.98809	1073
1.14336E-15	2.98397	1073
4.28730E-16	2.97643	1073
2.05439E-16	2.97025	1073
9.25941E-17	2.96271	1073
4.17334E-17	2.95585	1073
2.71696E-17	2.949	1073
1.47192E-17	2.93803	1073
9.01329E-18	2.93049	1073
5.19139E-18	2.92295	1073
4.06241E-18	2.9161	1073
2.48762E-18	2.90308	1073
1.34767E-18	2.89348	1073
7.76039E-19	2.88252	1073
9.35090E-03	3.01515	1173
2.86071E-06	3.00546	1173
1.83985E-11	2.99436	1173
3.73752E-12	2.99297	1173
1.79095E-12	2.98954	1173
8.58190E-13	2.98885	1173
3.42124E-13	2.98541	1173
1.36422E-13	2.98061	1173
6.14870E-14	2.97306	1173
3.33030E-14	2.96621	1173
2.16862E-14	2.96346	1173
1.50101E-14	2.95935	1173
9.19144E-15	2.95181	1173
5.29399E-15	2.94221	1173
3.04918E-15	2.93399	1173
2.24431E-15	2.92713	1173
1.37431E-15	2.91959	1173
8.94712E-16	2.90726	1173
5.47877E-16	2.89629	1173
3.83004E-02	3.01448	1273
1.05707E-02	3.00967	1273
9.42005E-05	3.00756	1273
8.11117E-06	3.00548	1273
4.27694E-07	2.99996	1273
2.54931E-08	2.99924	1273
6.84863E-10	2.99646	1273
2.41542E-10	2.99371	1273
5.21655E-11	2.98684	1273
2.07962E-11	2.98135	1273
8.81624E-12	2.97312	1273
5.07789E-12	2.96764	1273
2.75095E-12	2.96146	1273
1.79095E-12	2.94981	1273
9.12396E-13	2.9457	1273
7.13976E-13	2.93748	1273
3.42124E-13	2.92856	1273
2.51816E-13	2.91897	1273
1.54200E-13	2.90663	1273
8.35379E-14	2.89704	1273
