# 0.2
#pO2[atm]	3-delta	Temp[K]
3.64460E-02	3.02183	1273
1.33681E-02	3.01213	1273
3.04187E-09	2.9981	1273
1.65409E-10	2.99833	1273
8.57630E-12	2.99239	1273
1.13894E-12	2.97233	1273
3.44826E-13	2.95779	1273
1.04064E-13	2.94342	1273
4.14095E-14	2.93186	1273
1.63343E-14	2.91108	1273
8.27561E-15	2.89895	1273
5.52841E-15	2.88683	1273
3.67536E-15	2.86686	1273
2.31900E-15	2.84639	1273
1.34648E-15	2.81966	1273
5.32967E-16	2.78995	1273
1.60177E-16	2.74378	1273
3.03298E-03	3.00189	1373
9.05816E-08	2.99257	1373
1.14356E-08	2.98984	1373
8.66443E-09	2.99809	1373
7.44321E-10	2.98415	1373
6.16595E-11	2.9722	1373
1.56856E-12	2.93767	1373
3.22404E-13	2.91441	1373
6.91194E-14	2.84659	1373
2.78163E-14	2.80811	1373
1.46589E-14	2.77535	1373
1.11738E-14	2.74711	1373
6.00482E-15	2.71456	1373
5.34195E-15	2.7047	1373
1.62032E-03	3.00323	1473
1.40097E-06	3.0026	1473
1.75263E-07	2.98505	1473
7.03429E-10	2.95884	1473
6.31393E-11	2.94198	1473
1.12047E-11	2.89227	1473
4.74570E-12	2.87637	1473
2.32381E-12	2.85612	1473
1.53922E-12	2.84694	1473
7.69662E-13	2.80076	1473
6.57658E-13	2.78535	1473
