# 0
#pO2[atm]       3-delta Temp[K]
1.094939189	3.09741	1273
0.099774601	3.07143	1273
0.011599787	3.04545	1273
0.000817335	3.02342	1273
0.000114847	3.00792	1273
2.45499E-05	2.99835	1273
1.03245E-05	3.00215	1273
1.03428E-06	3.00033	1273
1.53688E-08	2.99835	1273
3.82631E-11	2.99835	1273
5.37638E-12	2.9906	1273
7.45298E-13	2.9906	1273
7.36597E-14	2.98681	1273
3.74404E-14	2.97723	1273
8.00332E-15	2.96949	1273
3.36581E-15	2.96766	1273
4.01328E-15	2.96189	1273
2.39961E-15	2.95414	1273
1.094939189	3.13007	1173
1.094939189	3.12627	1173
0.077150723	3.09634	1173
0.010694981	3.07629	1173
0.000753581	3.05411	1173
0.000632004	3.05031	1173
0.000104465	3.04059	1173
0.000104465	3.03299	1173
1.46788E-05	3.03102	1173
1.23106E-05	3.02144	1173
1.81113E-09	3.00412	1173
5.62924E-15	2.99926	1173
2.39961E-15	2.99349	1173
5.12944E-16	2.98772	1173
5.06956E-17	2.98392	1173
3.61427E-17	2.97237	1173
7.72592E-18	2.97435	1173
1.54071E-17	2.9628	1173
7.72592E-18	2.95703	1173
4.61955E-18	2.95125	1173
1.187572138	3.13873	1073
0.099774601	3.11655	1073
0.009860978	3.09452	1073
0.001162037	3.07052	1073
0.000135098	3.06657	1073
0.000135098	3.05502	1073
1.59206E-05	3.04742	1073
1.13504E-05	3.04165	1073
1.33758E-06	3.02144	1073
7.90424E-08	3.00792	1073
1.07026E-10	2.99638	1073
6.11618E-16	2.98194	1073
1.55894E-16	2.98194	1073
1.81242E-17	2.98392	1073
3.87427E-18	2.97815	1073
7.63572E-19	2.97435	1073
5.44377E-19	2.97237	1073
1.94621E-19	2.9666	1073
6.95793E-20	2.9666	1073
4.96055E-20	2.95505	1073
2.08617E-20	2.959	1073
2.08617E-20	2.94746	1073
1.06038E-20	2.94351	1073
1.094939189	3.16076	973
0.090756972	3.15119	973
0.010694981	3.12916	973
0.001502796	3.11184	973
0.000124563	3.08586	973
1.23106E-05	3.06763	973
1.21669E-06	3.04742	973
2.01108E-07	3.03588	973
3.32415E-08	3.02433	973
6.55149E-09	3.01081	973
5.01026E-18	3.00033	973
1.48734E-20	3.00033	973
6.34016E-21	2.99835	973
5.25521E-22	2.99638	973
6.19284E-23	2.9906	973
1.32379E-23	2.97906	973
4.73271E-24	2.97146	973
2.01748E-24	2.96569	973
1.009555037	3.17626	873
0.139949065	3.16653	873
0.013831204	3.1483	873
0.000124563	3.10318	873
3.73474E-05	3.11853	873
9.51919E-06	3.10698	873
1.59206E-05	3.08495	873
2.82586E-08	3.0532	873
5.06594E-09	3.02722	873
5.96994E-10	3.02342	873
1.52163E-10	3.01187	873
2.93137E-21	2.99926	873
3.96917E-24	2.99744	873
1.692E-24	2.99167	873
1.1922E-25	2.98772	873
7.04515E-27	2.97815	873
6.96274E-28	2.96857	873
2.96811E-28	2.9628	873
8.89918E-29	2.95505	873
