# 0.2
#pO2[atm]	3-delta	Temp[K]
1.42587E-01	3.03293	1073
1.28325E-02	3.02345	1073
1.31380E-03	3.0173	1073
1.18065E-04	3.01114	1073
2.93995E-07	3.00598	1073
2.69519E-09	3.00197	1073
1.59993E-12	3.00099	1073
7.31139E-14	3.00017	1073
1.32984E-14	2.9993	1073
2.94442E-15	2.99557	1073
1.85055E-15	2.99179	1073
1.14842E-15	2.98801	1073
4.46684E-16	2.98057	1073
1.95389E-16	2.97395	1073
5.36785E-17	2.96399	1073
4.01144E-17	2.95957	1073
2.27824E-17	2.9523	1073
1.15425E-17	2.94209	1073
7.39435E-18	2.93413	1073
4.86855E-18	2.92714	1073
3.37831E-18	2.91976	1073
2.22792E-18	2.90879	1073
1.16065E-18	2.89786	1073
8.15080E-19	2.88566	1073
7.88860E-19	2.87523	1073
5.48403E-19	2.86386	1073
3.81154E-19	2.85265	1073
2.68287E-19	2.84157	1073
1.74663E-19	2.83139	1073
1.21311E-19	2.82244	1073
8.88383E-20	2.81205	1073
6.50279E-20	2.80355	1073
4.02068E-20	2.79068	1073
3.58509E-20	2.77759	1073
2.43220E-20	2.7648	1073
1.87975E-20	2.7519	1073
1.24394E-20	2.73839	1073
1.20531E-20	2.71314	1073
1.20143E-20	2.72617	1073
1.13162E-20	2.67686	1073
1.12642E-20	2.68738	1073
1.33942E-01	3.02684	1173
1.28695E-02	3.01681	1173
1.60103E-03	3.01232	1173
2.47674E-05	3.00445	1173
3.73422E-06	3.00772	1173
1.63663E-07	3.00375	1173
2.16955E-08	3.00314	1173
4.63842E-10	3.00082	1173
2.31526E-11	2.99741	1173
4.54465E-12	2.99404	1173
1.94850E-12	2.99236	1173
1.08418E-12	2.99123	1173
6.43873E-13	2.99011	1173
4.08507E-13	2.98733	1173
1.64324E-13	2.98232	1173
7.53876E-14	2.9751	1173
2.19381E-14	2.96566	1173
1.58672E-14	2.96122	1173
1.00832E-14	2.95401	1173
5.27837E-15	2.94348	1173
3.35506E-15	2.93627	1173
2.27615E-15	2.92906	1173
1.64854E-15	2.9213	1173
1.04954E-15	2.91022	1173
6.25893E-16	2.89913	1173
4.00498E-16	2.87643	1173
3.98566E-16	2.88805	1173
3.10099E-16	2.86535	1173
1.84927E-16	2.85482	1173
1.34153E-16	2.84319	1173
1.03801E-16	2.83322	1173
7.04693E-17	2.82435	1173
5.10858E-17	2.81493	1173
3.70339E-17	2.80496	1173
2.21004E-17	2.79276	1173
1.82726E-17	2.78003	1173
1.32678E-17	2.76674	1173
1.09724E-17	2.754	1173
7.46277E-18	2.7407	1173
6.62369E-18	2.71524	1173
6.58719E-18	2.72797	1173
5.84521E-18	2.7025	1173
5.53350E-18	2.6787	1173
1.63779E-01	3.01411	1273
5.06816E-02	3.01297	1273
1.50435E-03	3.00568	1273
2.47674E-05	3.00445	1273
3.07978E-06	3.00107	1273
5.66005E-07	2.99881	1273
3.21736E-08	2.99651	1273
7.83267E-10	2.9953	1273
6.60085E-11	2.98692	1273
2.33453E-11	2.97859	1273
1.22039E-11	2.97082	1273
4.04297E-12	2.96304	1273
3.12248E-12	2.9575	1273
1.85909E-12	2.95029	1273
9.72747E-13	2.94086	1273
6.18586E-13	2.93254	1273
3.93097E-13	2.92533	1273
3.03948E-13	2.91758	1273
1.81217E-13	2.90705	1273
1.01274E-13	2.89596	1273
7.38414E-14	2.87326	1273
7.34852E-14	2.88433	1273
5.71610E-14	2.86218	1273
3.63831E-14	2.85165	1273
2.63876E-14	2.84057	1273
2.04268E-14	2.83005	1273
1.38676E-14	2.82118	1273
1.07300E-14	2.81121	1273
7.77678E-15	2.80179	1273
4.95450E-15	2.78905	1273
4.09732E-15	2.77631	1273
3.17395E-15	2.76357	1273
2.30409E-15	2.75083	1273
1.56747E-15	2.73698	1273
1.38325E-15	2.7248	1273
1.30347E-15	2.71152	1273
1.23481E-15	2.68605	1273
1.22800E-15	2.69878	1273
